Title=A555
Comment=
Signature=ISS_Experiment_Ver_1_0
Timestamp=Thu May 19 14:38:57 2022

AcquisitionType=Photon Counting
AcquisitionFormat=L
AcquisitionSide=Right

Measurable=Intensity
MaxIterations=3

RightEmissionWavelengthBandwidth=8
ExcitationWavelengthBandwidth=8
Visualization=PlotType:2D,X:EmissionWavelength,Y:Intensity


Iteration=type:index,unit:none,count:3
EmissionWavelength=type:numeric,unit:nm,from:560.0,to:630.0,step:1.0
ExcitationWavelength=type:numeric,unit:nm,fixed:555.0

Space=Iteration,EmissionWavelength
Columns=Iteration,EmissionWavelength,Intensity,IntensityStdError
[Data]
1  	560    	      395145.667       1481.8
1  	561    	      418892.333       2293.9
1  	562    	      447464.667       1671.6
1  	563    	      469520.667       1216.4
1  	564    	      484679.333       903.16
1  	565    	          501494       1475.4
1  	566    	          511053       2003.7
1  	567    	          515520       473.55
1  	568    	      516026.667       2120.5
1  	569    	      510586.667       1951.8
1  	570    	      503185.333       1683.1
1  	571    	          487467       1005.1
1  	572    	      474840.333       3152.2
1  	573    	      457093.667       4279.2
1  	574    	      438974.667       884.05
1  	575    	      424601.333       969.28
1  	576    	      411453.667         1282
1  	577    	      386466.333       733.22
1  	578    	      375187.667       1253.4
1  	579    	      356440.667       509.03
1  	580    	      340294.333       942.03
1  	581    	          324305         2135
1  	582    	      308279.667       444.38
1  	583    	      292174.667         1404
1  	584    	          278799       681.44
1  	585    	          264347       917.52
1  	586    	      250479.667       440.17
1  	587    	      238186.333       639.65
1  	588    	          227628       788.25
1  	589    	      216797.667       452.14
1  	590    	          207282        245.2
1  	591    	      199159.667        328.6
1  	592    	          192600       1497.3
1  	593    	      184518.333       925.27
1  	594    	          179813       1070.6
1  	595    	          174306       758.14
1  	596    	      169253.667        260.1
1  	597    	          167052        944.8
1  	598    	      162839.333       474.23
1  	599    	      157238.667       1166.6
1  	600    	          155081       746.71
1  	601    	          153572       1147.5
1  	602    	      151652.667       682.16
1  	603    	      150105.667       728.68
1  	604    	      148760.333          559
1  	605    	      147880.667       1201.8
1  	606    	      144613.333       1108.9
1  	607    	      144014.333       770.99
1  	608    	      140959.667        654.6
1  	609    	          139466       1234.9
1  	610    	      136906.333       481.57
1  	611    	      134864.667       474.41
1  	612    	          132079       493.54
1  	613    	      131426.333       1077.7
1  	614    	      126587.333       573.48
1  	615    	      124972.667       826.23
1  	616    	      121465.333       292.42
1  	617    	      117852.667       312.94
1  	618    	      114104.667        782.8
1  	619    	          110811       1109.5
1  	620    	      105812.667       967.25
1  	621    	      102666.333       1120.7
1  	622    	      98532.3333       488.81
1  	623    	           94345        574.5
1  	624    	           91892       775.97
1  	625    	      85839.6667       634.43
1  	626    	      83371.3333       280.19
1  	627    	           79040       390.29
1  	628    	           75428       774.35
1  	629    	           71905       155.21
1  	630    	      67718.3333       358.44
2  	560    	      379386.667         2969
2  	561    	          403000       1524.1
2  	562    	          424384       2364.9
2  	563    	      441120.667       819.07
2  	564    	      458544.667       2026.5
2  	565    	          469186       1846.3
2  	566    	      474238.667       1960.8
2  	567    	      484251.667       945.99
2  	568    	      483466.667       1804.3
2  	569    	      478384.667       1120.1
2  	570    	      471293.667       2072.3
2  	571    	      465598.667       1426.4
2  	572    	      454519.667       1063.9
2  	573    	      441306.667       409.34
2  	574    	          431707       280.07
2  	575    	      413212.667       2570.1
2  	576    	      399094.333       82.228
2  	577    	      382720.333       2534.8
2  	578    	          365400       1016.2
2  	579    	      348531.333       1042.6
2  	580    	          332709       1305.5
2  	581    	      317186.667       734.57
2  	582    	          298827       1927.8
2  	583    	      286892.333       807.75
2  	584    	      269305.333       294.81
2  	585    	          258453       484.44
2  	586    	      247947.333       1296.5
2  	587    	      233453.333        693.4
2  	588    	      222771.333       974.09
2  	589    	      214799.333       786.79
2  	590    	      204534.667       1341.1
2  	591    	          198508       259.32
2  	592    	      188173.333       782.94
2  	593    	      180797.333       729.17
2  	594    	          174561       881.23
2  	595    	      170585.333       162.45
2  	596    	      165014.333       837.99
2  	597    	      162626.333       735.68
2  	598    	      158133.667       427.49
2  	599    	          154801       877.68
2  	600    	          152666       723.38
2  	601    	      151012.333       1211.7
2  	602    	      149906.667         1503
2  	603    	          146160       991.93
2  	604    	      145491.667       620.48
2  	605    	      143145.667        373.8
2  	606    	      143120.667        721.4
2  	607    	      140614.333        250.6
2  	608    	      137252.333       91.808
2  	609    	      137786.333       431.27
2  	610    	          133827       581.57
2  	611    	      133253.333       808.95
2  	612    	      133238.667       1191.6
2  	613    	      126972.667       537.89
2  	614    	      124945.333       519.38
2  	615    	      122279.667       411.12
2  	616    	          118586       458.63
2  	617    	      115319.667       520.62
2  	618    	          112585       399.41
2  	619    	      107760.333        329.1
2  	620    	      105278.667       737.14
2  	621    	      101069.333       322.93
2  	622    	      97705.3333       742.91
2  	623    	      92360.3333       438.39
2  	624    	      90130.6667       381.02
2  	625    	      84985.3333       382.75
2  	626    	      81384.3333       658.15
2  	627    	      77761.3333       704.41
2  	628    	      73401.3333       312.41
2  	629    	      70812.6667       471.99
2  	630    	      66160.6667       637.25
3  	560    	          372666       563.75
3  	561    	      397319.667       499.04
3  	562    	      418346.667       816.73
3  	563    	      438759.333       1674.7
3  	564    	      449107.333         1809
3  	565    	      461626.667       2706.1
3  	566    	          469293       1179.9
3  	567    	      474827.667        847.1
3  	568    	      475650.333       1721.9
3  	569    	      472185.333       472.63
3  	570    	      464720.667       2818.6
3  	571    	          456772       3236.5
3  	572    	          450961       1775.9
3  	573    	      433412.667       2292.4
3  	574    	          421294       2241.9
3  	575    	          406215       1211.2
3  	576    	          393215       1964.9
3  	577    	      378466.333       1195.3
3  	578    	      359454.333       2014.2
3  	579    	      340799.667       1641.6
3  	580    	      326878.667       426.39
3  	581    	      312053.667       179.97
3  	582    	      297586.667       779.14
3  	583    	      281961.667       834.54
3  	584    	      267013.667       847.69
3  	585    	      254039.333       694.34
3  	586    	      242345.667       1785.9
3  	587    	      229239.333       2066.8
3  	588    	          221360       853.74
3  	589    	      206865.667       258.49
3  	590    	      201199.667       637.81
3  	591    	      193038.667        658.5
3  	592    	      186135.333       1621.1
3  	593    	      180023.333       386.17
3  	594    	          172599       901.25
3  	595    	      169680.667       606.78
3  	596    	          163654       201.86
3  	597    	          159586       1277.7
3  	598    	      156666.667       298.49
3  	599    	          154800       1581.2
3  	600    	          150371       1443.5
3  	601    	      148694.667       1361.4
3  	602    	          146133        480.5
3  	603    	          146934       1202.6
3  	604    	          141972       1692.1
3  	605    	      142092.667       178.12
3  	606    	      139638.333       566.15
3  	607    	          136974        594.6
3  	608    	      138012.667         1315
3  	609    	      134892.667       668.37
3  	610    	      134666.333       589.26
3  	611    	          130052       355.53
3  	612    	      127065.333       633.31
3  	613    	      127225.667       208.23
3  	614    	          123932       688.74
3  	615    	      120410.333       302.96
3  	616    	      116106.333        732.1
3  	617    	          114935       917.34
3  	618    	      111293.333       306.92
3  	619    	      106878.667       671.06
3  	620    	          104252       1082.7
3  	621    	          100040          126
3  	622    	      95319.3333       445.63
3  	623    	      91039.6667       415.06
3  	624    	      88650.6667       406.28
3  	625    	      83625.3333       1062.3
3  	626    	           81080       418.71
3  	627    	      76611.6667       643.17
3  	628    	           73574       889.02
3  	629    	      68746.6667       289.28
3  	630    	      67334.6667       515.92
