Title=Alexa750
Comment=
Signature=ISS_Experiment_Ver_1_0
Timestamp=Thu May 19 14:28:14 2022

AcquisitionType=Photon Counting
AcquisitionFormat=L
AcquisitionSide=Right

Measurable=Intensity
MaxIterations=3

RightEmissionWavelengthBandwidth=8
ExcitationWavelengthBandwidth=8
Visualization=PlotType:2D,X:EmissionWavelength,Y:Intensity


Iteration=type:index,unit:none,count:3
EmissionWavelength=type:numeric,unit:nm,from:755.0,to:800.0,step:1.0
ExcitationWavelength=type:numeric,unit:nm,fixed:750.0

Space=Iteration,EmissionWavelength
Columns=Iteration,EmissionWavelength,Intensity,IntensityStdError
[Data]
1  	755    	            9161       335.16
1  	756    	      9921.33333       224.54
1  	757    	      10318.6667       39.004
1  	758    	      10199.3333       262.02
1  	759    	           11027       335.24
1  	760    	      11492.3333       450.69
1  	761    	      11853.6667        296.8
1  	762    	           12172       288.36
1  	763    	           12278       266.61
1  	764    	      12441.6667       140.43
1  	765    	           13038       119.83
1  	766    	           13413       26.181
1  	767    	           13545       93.167
1  	768    	           14133        70.94
1  	769    	      14211.3333       208.08
1  	770    	           14653       207.47
1  	771    	           14453       146.67
1  	772    	      15358.6667       137.99
1  	773    	      14626.3333       130.35
1  	774    	      14746.6667       375.92
1  	775    	      14906.6667       82.529
1  	776    	      15026.6667       419.22
1  	777    	      14812.3333       214.32
1  	778    	           15560       188.79
1  	779    	      14948.3333       253.83
1  	780    	           14558       151.17
1  	781    	      14624.3333       354.62
1  	782    	      13734.3333       348.56
1  	783    	           14519       323.03
1  	784    	      13600.3333       140.72
1  	785    	      13241.3333       582.48
1  	786    	      13624.6667       134.89
1  	787    	      12892.6667       185.21
1  	788    	           12413       254.44
1  	789    	      12172.3333       141.04
1  	790    	      12173.3333       203.21
1  	791    	      11185.3333        273.6
1  	792    	      10933.3333       57.742
1  	793    	      10625.3333          150
1  	794    	      10065.6667       74.097
1  	795    	      9693.66667       95.687
1  	796    	            9694       174.87
1  	797    	            8800       266.56
1  	798    	      8801.33333       283.67
1  	799    	      7973.33333       107.96
1  	800    	            7425       208.11
2  	755    	      8639.33333       220.67
2  	756    	            9640       212.36
2  	757    	      9865.66667       154.26
2  	758    	      10587.3333       180.24
2  	759    	      10640.3333       80.846
2  	760    	           11120       128.06
2  	761    	      11693.6667       284.55
2  	762    	      11879.6667       161.66
2  	763    	      12627.3333       352.77
2  	764    	      12441.3333       174.17
2  	765    	      13161.3333       183.31
2  	766    	      13108.3333       135.42
2  	767    	      13840.3333       140.24
2  	768    	           13811       104.39
2  	769    	           14372       162.45
2  	770    	      14678.3333       257.27
2  	771    	           14587       439.61
2  	772    	      14626.3333       345.96
2  	773    	           14972       195.64
2  	774    	           15091       286.88
2  	775    	           14681       282.71
2  	776    	      15010.6667       219.17
2  	777    	      14799.6667       311.41
2  	778    	           14628       389.55
2  	779    	      14893.6667       301.59
2  	780    	           14720       141.05
2  	781    	      14239.3333       297.17
2  	782    	      14224.6667       380.14
2  	783    	           14226       206.57
2  	784    	      13947.3333        146.5
2  	785    	           13372       501.55
2  	786    	           13292       345.48
2  	787    	      12812.3333       255.73
2  	788    	      12145.6667       379.38
2  	789    	           12387        164.2
2  	790    	      11706.3333       175.78
2  	791    	      11438.6667       242.74
2  	792    	      10854.6667       127.47
2  	793    	           10586       70.806
2  	794    	      10452.6667        210.3
2  	795    	      9546.66667        117.8
2  	796    	            9280       234.36
2  	797    	      8600.66667       99.279
2  	798    	      8521.33333       129.62
2  	799    	            8239       46.784
2  	800    	      7241.33333       23.412
3  	755    	      9171.66667       313.79
3  	756    	      9451.66667       432.94
3  	757    	      9947.33333       221.49
3  	758    	      10452.6667       34.588
3  	759    	      10599.3333       120.34
3  	760    	      11293.3333       92.171
3  	761    	      11545.3333       291.08
3  	762    	      11812.3333       419.77
3  	763    	      12133.3333       233.47
3  	764    	      11894.3333        158.5
3  	765    	      12413.3333       255.97
3  	766    	      12891.6667       71.248
3  	767    	      13144.6667       180.03
3  	768    	           13852       277.59
3  	769    	      13946.6667       238.29
3  	770    	      13946.3333       248.55
3  	771    	      14200.3333       208.42
3  	772    	           15052       206.54
3  	773    	      14505.3333       608.24
3  	774    	           14879       45.612
3  	775    	           15255       148.21
3  	776    	           14961       344.85
3  	777    	           14479       289.58
3  	778    	      14825.3333       196.75
3  	779    	           14668       333.77
3  	780    	           14187       154.58
3  	781    	      14038.6667       288.72
3  	782    	      14200.6667       267.31
3  	783    	           13558       234.44
3  	784    	      13519.3333       182.03
3  	785    	           13440       280.41
3  	786    	      13011.3333       47.485
3  	787    	      13052.6667        187.5
3  	788    	      12504.3333       95.613
3  	789    	      12133.3333       127.38
3  	790    	      11893.3333       232.47
3  	791    	      11307.6667        360.9
3  	792    	           10852       300.48
3  	793    	           10080       61.982
3  	794    	           10013       53.333
3  	795    	      9479.66667       106.02
3  	796    	      9426.66667       313.85
3  	797    	      8867.66667       130.83
3  	798    	            8761       161.25
3  	799    	      8347.33333       219.77
3  	800    	      7626.66667       141.36
