Title=Alexa-647-test
Comment=
Signature=ISS_Experiment_Ver_1_0
Timestamp=Thu May 19 12:05:33 2022

AcquisitionType=Photon Counting
AcquisitionFormat=L
AcquisitionSide=Right

Measurable=Intensity
MaxIterations=3

RightEmissionWavelengthBandwidth=8
ExcitationWavelengthBandwidth=8
Visualization=PlotType:2D,X:EmissionWavelength,Y:Intensity


Iteration=type:index,unit:none,count:3
EmissionWavelength=type:numeric,unit:nm,from:655.0,to:735.0,step:1.0
ExcitationWavelength=type:numeric,unit:nm,fixed:650.0

Space=Iteration,EmissionWavelength
Columns=Iteration,EmissionWavelength,Intensity,IntensityStdError
[Data]
1  	655    	      28440.6667       355.03
1  	656    	           30601       208.46
1  	657    	           31961       214.17
1  	658    	      33811.6667       391.95
1  	659    	      35001.3333       279.01
1  	660    	      37387.3333       316.92
1  	661    	      38852.6667       393.05
1  	662    	      40518.6667       74.425
1  	663    	      41677.6667       646.89
1  	664    	      42545.3333       127.81
1  	665    	      43038.3333       661.26
1  	666    	           43986       220.85
1  	667    	      43892.3333       475.87
1  	668    	      44492.3333       202.24
1  	669    	           44371       167.59
1  	670    	      43720.6667       292.84
1  	671    	      43041.6667       179.12
1  	672    	           42454        667.6
1  	673    	      42559.3333       590.44
1  	674    	      41119.3333          307
1  	675    	      40477.3333       323.56
1  	676    	      38799.3333       519.98
1  	677    	      39706.6667        415.4
1  	678    	      37811.3333       161.03
1  	679    	      36919.3333       374.75
1  	680    	      35731.6667       438.43
1  	681    	      34054.3333       233.29
1  	682    	           31493       164.05
1  	683    	           30973        370.4
1  	684    	      29251.3333       139.75
1  	685    	           27627       528.57
1  	686    	      25693.6667       151.71
1  	687    	      24066.6667        201.2
1  	688    	      23343.3333        119.5
1  	689    	      21479.6667        297.6
1  	690    	      20066.6667       432.77
1  	691    	           19559       126.34
1  	692    	      17799.6667       166.47
1  	693    	           17507       84.068
1  	694    	      16094.3333       359.09
1  	695    	      14733.3333        34.79
1  	696    	           14186        261.1
1  	697    	           12932       268.34
1  	698    	      12545.3333       165.25
1  	699    	      11733.6667       92.452
1  	700    	           10986       220.85
1  	701    	      10333.3333       422.78
1  	702    	      9987.66667       84.147
1  	703    	      9147.33333       23.965
1  	704    	            8707       248.68
1  	705    	            8158       337.23
1  	706    	            7984       243.34
1  	707    	            7132       14.836
1  	708    	            7065          180
1  	709    	      6866.33333       100.66
1  	710    	      6518.33333       154.65
1  	711    	      6158.33333       81.132
1  	712    	      5826.66667          202
1  	713    	            5307       220.24
1  	714    	      5520.33333       96.526
1  	715    	            5000        179.3
1  	716    	      5133.33333       153.48
1  	717    	      4745.33333       261.31
1  	718    	      4853.66667       164.56
1  	719    	      4853.33333       158.82
1  	720    	      4252.66667       248.12
1  	721    	      3971.33333       126.58
1  	722    	      4344.66667       144.18
1  	723    	            4041       374.59
1  	724    	      3826.33333        70.15
1  	725    	      3640.33333       214.65
1  	726    	      3599.33333       323.68
1  	727    	      3783.66667       81.335
1  	728    	      3587.33333       167.49
1  	729    	            3653       96.288
1  	730    	      3239.66667       194.68
1  	731    	            3280       139.72
1  	732    	      3105.66667       181.63
1  	733    	            3132       87.967
1  	734    	      2935.33333       185.61
1  	735    	      2772.33333       184.57
2  	655    	      27319.6667        263.5
2  	656    	      28347.3333       496.97
2  	657    	      30450.6667       208.55
2  	658    	      31305.6667       525.31
2  	659    	      32866.6667       140.33
2  	660    	      35226.3333       386.68
2  	661    	      37186.6667       739.94
2  	662    	      36973.6667        513.3
2  	663    	      38999.6667       548.21
2  	664    	      40866.6667       906.18
2  	665    	           41985       423.76
2  	666    	      42505.6667       220.82
2  	667    	      42387.3333       577.58
2  	668    	      43560.3333       176.33
2  	669    	      43932.3333       49.652
2  	670    	           42905       335.16
2  	671    	      43426.3333       619.54
2  	672    	      42425.3333       876.86
2  	673    	           41785       310.53
2  	674    	      42277.6667       341.89
2  	675    	           41533       565.69
2  	676    	      39908.3333       509.94
2  	677    	      39118.6667       748.83
2  	678    	      37439.6667       694.49
2  	679    	      36105.3333       223.79
2  	680    	      34637.6667       354.39
2  	681    	      33109.6667        283.4
2  	682    	           31812       336.28
2  	683    	      30211.6667       308.16
2  	684    	      28908.3333       140.01
2  	685    	           27214       232.02
2  	686    	      26238.6667       359.17
2  	687    	      24253.3333       233.32
2  	688    	      23401.3333       210.44
2  	689    	           21481       276.99
2  	690    	      20559.6667       208.85
2  	691    	      19122.6667       397.85
2  	692    	      17747.3333        293.9
2  	693    	      16613.6667       194.49
2  	694    	      16370.3333       244.72
2  	695    	           14546       23.383
2  	696    	           14053       362.88
2  	697    	      12865.3333       139.72
2  	698    	      12360.6667       235.89
2  	699    	      11452.6667       329.65
2  	700    	      10640.6667       111.22
2  	701    	      9944.66667       367.26
2  	702    	      9786.33333       150.51
2  	703    	      9013.33333       218.62
2  	704    	      8383.66667       188.33
2  	705    	      13105.6667       5126.8
2  	706    	            7493        315.1
2  	707    	      7452.33333       192.86
2  	708    	            7331       266.27
2  	709    	      6946.66667       143.44
2  	710    	      6306.66667       197.69
2  	711    	      6413.66667       148.51
2  	712    	      5958.66667       227.17
2  	713    	            5772        173.6
2  	714    	            5425       100.93
2  	715    	      5265.66667       190.59
2  	716    	      5213.66667       152.63
2  	717    	            4813       74.149
2  	718    	            4614       152.69
2  	719    	            4534       34.901
2  	720    	      4371.66667       46.369
2  	721    	            4349        159.8
2  	722    	            4226       60.829
2  	723    	      3945.33333       162.28
2  	724    	      4359.33333       104.41
2  	725    	      4172.66667       215.07
2  	726    	      3839.66667       104.92
2  	727    	      3694.66667       127.33
2  	728    	      3880.33333       185.61
2  	729    	            3600       127.86
2  	730    	      3587.66667        101.4
2  	731    	      3613.33333       141.55
2  	732    	      3465.66667       23.132
2  	733    	      3251.33333       56.226
2  	734    	      2947.33333        174.7
2  	735    	            3013       149.95
3  	655    	      28934.6667       466.83
3  	656    	      30532.6667       166.59
3  	657    	      32599.3333       175.75
3  	658    	      33493.3333           53
3  	659    	      35987.6667       340.31
3  	660    	      37093.3333       436.83
3  	661    	           38867       166.85
3  	662    	      40947.6667       60.774
3  	663    	           41812       787.57
3  	664    	      43092.6667        207.4
3  	665    	      43707.3333       789.94
3  	666    	      43946.6667       427.27
3  	667    	      45212.3333       342.38
3  	668    	      44399.3333       340.01
3  	669    	           44985       141.14
3  	670    	           44640       257.84
3  	671    	      43905.6667       83.187
3  	672    	      43210.3333       358.77
3  	673    	      42934.3333       391.72
3  	674    	      42880.6667       131.17
3  	675    	      40988.3333       655.13
3  	676    	      40745.3333       439.18
3  	677    	           39281       300.27
3  	678    	      38226.3333       201.86
3  	679    	      37374.6667       134.17
3  	680    	      35358.6667       371.81
3  	681    	      33545.6667       636.13
3  	682    	      32934.6667       412.83
3  	683    	      31373.6667       137.75
3  	684    	      29065.6667       438.33
3  	685    	      27494.3333       415.62
3  	686    	      26292.6667       202.32
3  	687    	      24784.3333       585.69
3  	688    	           23280       464.64
3  	689    	           21947       462.67
3  	690    	      20692.6667       589.19
3  	691    	      18985.3333       288.03
3  	692    	      17946.3333        336.5
3  	693    	      16825.6667       47.054
3  	694    	      15496.6667       219.15
3  	695    	           14478       450.96
3  	696    	      13654.3333       224.16
3  	697    	           13201       173.05
3  	698    	           12678       269.57
3  	699    	      11852.6667        191.7
3  	700    	      11051.6667       175.69
3  	701    	      10400.3333       289.04
3  	702    	            9693       186.67
3  	703    	      9255.33333       110.14
3  	704    	      8880.66667       80.617
3  	705    	      8186.66667        129.2
3  	706    	            7331       148.39
3  	707    	      7721.33333       237.46
3  	708    	      7079.66667          362
3  	709    	            6852       248.71
3  	710    	      6412.33333       135.43
3  	711    	            5988        241.3
3  	712    	            6025       288.54
3  	713    	      5732.66667       132.68
3  	714    	            5651       268.59
3  	715    	      5067.33333       240.01
3  	716    	            5159       150.08
3  	717    	      5090.66667       87.419
3  	718    	      4946.66667       185.04
3  	719    	            4589       92.377
3  	720    	      4292.66667       246.68
3  	721    	            4347       121.55
3  	722    	      3972.33333       148.35
3  	723    	      4199.33333       53.501
3  	724    	      4280.66667       266.52
3  	725    	      4146.33333          160
3  	726    	            4028       184.07
3  	727    	            3733       26.692
3  	728    	      3747.66667       139.34
3  	729    	      3866.66667       161.99
3  	730    	      3374.66667       114.84
3  	731    	            3349       69.283
3  	732    	      3493.33333         94.5
3  	733    	      3373.66667       311.24
3  	734    	            3066       161.83
3  	735    	      2867.33333          160
